 Field[T] Tsmpl[K] Tcntr[K] Signal
 0.00000    1.79     1.81   5.14660
 0.05000    1.79     1.81   5.14480
 0.10000    1.79     1.81   5.14710
 0.15000    1.79     1.81   5.14730
 0.20000    1.79     1.81   5.14650
 0.25000    1.79     1.81   5.14640
 0.30000    1.79     1.81   5.14650
 0.35000    1.78     1.81   5.15020
 0.40000    1.78     1.81   5.14960
 0.45000    1.78     1.81   5.15020
 0.50000    1.78     1.81   5.14910
 0.55000    1.78     1.81   5.15410
 0.60000    1.78     1.80   5.15380
 0.65000    1.78     1.80   5.15510
 0.70000    1.78     1.80   5.15430
 0.75000    1.78     1.80   5.15300
 0.80000    1.78     1.80   5.15630
 0.85000    1.78     1.80   5.16230
 0.90000    1.78     1.80   5.16230
 0.95000    1.78     1.80   5.15570
 1.00000    1.78     1.80   5.15740
 1.05000    1.78     1.80   5.15340
 1.10000    1.78     1.80   5.15050
 1.15000    1.78     1.80   5.14910
 1.20000    1.78     1.80   5.15240
 1.25000    1.78     1.80   5.15310
 1.30000    1.78     1.80   5.15070
 1.35000    1.78     1.80   5.15330
 1.40000    1.78     1.80   5.15110
 1.45000    1.78     1.80   5.15170
 1.50000    1.78     1.80   5.15470
 1.55000    1.78     1.80   5.15240
 1.60000    1.78     1.80   5.15440
 1.65000    1.78     1.80   5.15480
 1.70000    1.78     1.81   5.15530
 1.75000    1.78     1.81   5.15750
 1.80000    1.78     1.81   5.15550
 1.85000    1.78     1.81   5.15810
 1.90000    1.78     1.81   5.15780
 1.95000    1.78     1.81   5.15710
 2.00000    1.78     1.81   5.15790
 2.05000    1.78     1.81   5.16000
 2.10000    1.78     1.81   5.16080
 2.15000    1.78     1.81   5.16250
 2.20000    1.78     1.81   5.16330
 2.25000    1.78     1.81   5.16250
 2.30000    1.78     1.81   5.16560
 2.35000    1.78     1.82   5.16790
 2.40000    1.78     1.82   5.16720
 2.45000    1.78     1.82   5.17180
 2.50000    1.78     1.82   5.16670
 2.55000    1.78     1.82   5.17150
 2.60000    1.78     1.82   5.16520
 2.65000    1.78     1.82   5.16400
 2.70000    1.78     1.82   5.16670
 2.75000    1.78     1.82   5.16850
 2.80000    1.78     1.82   5.16760
 2.85000    1.78     1.82   5.16460
 2.90000    1.79     1.82   5.16690
 2.95000    1.79     1.83   5.16860
 3.00000    1.79     1.83   5.16510
 3.05000    1.79     1.83   5.16740
 3.10000    1.79     1.83   5.16720
 3.15000    1.79     1.83   5.16490
 3.20000    1.79     1.83   5.16880
 3.25000    1.79     1.83   5.16890
 3.30000    1.79     1.83   5.16750
 3.35000    1.79     1.83   5.17120
 3.40000    1.79     1.83   5.16940
 3.45000    1.79     1.83   5.17190
 3.50000    1.79     1.83   5.16910
 3.55000    1.79     1.83   5.17040
 3.60000    1.79     1.84   5.17200
 3.65000    1.79     1.84   5.17480
 3.70000    1.79     1.84   5.17520
 3.75000    1.79     1.84   5.17700
 3.80000    1.79     1.84   5.18340
 3.85000    1.79     1.84   5.18050
 3.90000    1.79     1.84   5.17850
 3.95000    1.79     1.84   5.17720
 4.00000    1.79     1.84   5.17740
 4.05000    1.79     1.84   5.17490
 4.10000    1.79     1.84   5.17830
 4.15000    1.79     1.84   5.17530
 4.20000    1.79     1.84   5.17740
 4.25000    1.79     1.84   5.17440
 4.30000    1.79     1.84   5.17710
 4.35000    1.79     1.84   5.17920
 4.40000    1.79     1.84   5.17650
 4.45000    1.79     1.84   5.17720
 4.50000    1.79     1.84   5.17830
 4.55000    1.79     1.84   5.18100
 4.60000    1.79     1.85   5.18180
 4.65000    1.79     1.85   5.18530
 4.70000    1.79     1.85   5.18070
 4.75000    1.79     1.85   5.18150
 4.80000    1.79     1.85   5.17900
 4.85000    1.79     1.85   5.17540
 4.90000    1.79     1.85   5.17440
 4.95000    1.79     1.85   5.17420
 5.00000    1.79     1.85   5.17630
 5.00000    1.79     1.85   5.17890
 4.95000    1.79     1.85   5.17740
 4.90000    1.79     1.85   5.17770
 4.85000    1.79     1.85   5.18020
 4.80000    1.79     1.85   5.17850
 4.75000    1.79     1.85   5.18030
 4.70000    1.79     1.85   5.18020
 4.65000    1.79     1.85   5.18200
 4.60000    1.79     1.85   5.18250
 4.55000    1.79     1.85   5.18620
 4.50000    1.79     1.84   5.18620
 4.45000    1.79     1.84   5.18360
 4.40000    1.79     1.84   5.18020
 4.35000    1.79     1.84   5.17980
 4.30000    1.79     1.84   5.17500
 4.25000    1.79     1.84   5.17450
 4.20000    1.79     1.84   5.17460
 4.15000    1.79     1.84   5.17700
 4.10000    1.79     1.84   5.17530
 4.05000    1.79     1.84   5.17680
 4.00000    1.79     1.84   5.17280
 3.95000    1.79     1.84   5.17350
 3.90000    1.79     1.84   5.17600
 3.85000    1.79     1.83   5.17360
 3.80000    1.79     1.83   5.17390
 3.75000    1.79     1.83   5.17370
 3.70000    1.79     1.83   5.17340
 3.65000    1.79     1.83   5.17910
 3.60000    1.79     1.83   5.17450
 3.55000    1.79     1.83   5.17710
 3.50000    1.79     1.83   5.17700
 3.45000    1.79     1.83   5.17620
 3.40000    1.79     1.83   5.17540
 3.35000    1.79     1.83   5.17770
 3.30000    1.79     1.83   5.18200
 3.25000    1.79     1.83   5.17750
 3.20000    1.79     1.83   5.17810
 3.15000    1.79     1.83   5.17280
 3.10000    1.79     1.83   5.17160
 3.05000    1.79     1.83   5.17610
 3.00000    1.79     1.83   5.17100
 2.95000    1.78     1.83   5.16980
 2.90000    1.78     1.82   5.17070
 2.85000    1.78     1.82   5.16860
 2.80000    1.78     1.82   5.16800
 2.75000    1.78     1.82   5.16670
 2.70000    1.78     1.82   5.16760
 2.65000    1.78     1.82   5.16620
 2.60000    1.78     1.82   5.16410
 2.55000    1.78     1.82   5.16260
 2.50000    1.78     1.82   5.16150
 2.45000    1.78     1.82   5.16030
 2.40000    1.78     1.82   5.16260
 2.35000    1.78     1.82   5.16220
 2.30000    1.78     1.82   5.16110
 2.25000    0.00     1.82   5.16340
 2.20000    1.78     1.82   5.16360
 2.15000    1.78     1.82   5.16410
 2.10000    1.78     1.82   5.16320
 2.05000    1.78     1.82   5.16160
 2.00000    1.78     1.82   5.16390
 1.95000    1.78     1.82   5.16100
 1.90000    1.78     1.82   5.16290
 1.85000    1.78     1.82   5.16380
 1.80000    1.79     1.82   5.16530
 1.75000    1.79     1.81   5.16300
 1.70000    1.79     1.81   5.16460
 1.65000    1.79     1.81   5.16550
 1.60000    1.79     1.81   5.16570
 1.55000    1.79     1.81   5.16180
 1.50000    1.79     1.81   5.16440
 1.45000    1.79     1.81   5.16270
 1.40000    1.79     1.81   5.16480
 1.35000    0.00     1.81   5.16630
 1.30000    1.79     1.81   5.16300
 1.25000    1.79     1.81   5.16300
 1.20000    1.79     1.81   5.16540
 1.15000    1.79     1.81   5.16720
 1.10000    1.79     1.81   5.16460
 1.05000    1.79     1.81   5.16430
 1.00000    1.79     1.81   5.16370
 0.95000    1.79     1.81   5.16680
 0.90000    1.79     1.81   5.16860
 0.85000    1.79     1.81   5.16490
 0.80000    1.79     1.81   5.16100
 0.75000    1.79     1.81   5.15910
 0.70000    1.79     1.81   5.15700
 0.65000    1.79     1.81   5.15660
 0.60000    1.79     1.81   5.15530
 0.55000    1.79     1.81   5.15800
 0.50000    1.79     1.81   5.15490
 0.45000    1.79     1.81   5.15690
 0.40000    1.79     1.81   5.15380
 0.35000    1.79     1.81   5.15680
 0.30000    1.79     1.81   5.15460
 0.25000    1.79     1.81   5.15770
 0.20000    1.79     1.81   5.15600
 0.15000    1.79     1.81   5.15630
 0.10000    1.79     1.81   5.15780
 0.05000    1.78     1.81   5.15660
-0.00000    1.78     1.81   5.15840
